XRD_sample ‚óè Full Chart; d-I
Wavelength = 1.54059
17.65946	117.00
17.58915	114.00
17.51940	101.00
17.45020	82.00
17.38154	124.00
17.31342	107.00
17.24584	96.00
17.17878	124.00
17.11224	123.00
17.04621	129.00
16.98070	96.00
16.91568	136.00
16.85116	90.00
16.78713	98.00
16.72359	122.00
16.66052	107.00
16.59794	99.00
16.53582	92.00
16.47416	108.00
16.41296	90.00
16.35222	95.00
16.29192	104.00
16.23207	115.00
16.17266	97.00
16.11368	97.00
16.05513	121.00
15.99700	90.00
15.93930	100.00
15.88201	105.00
15.82513	105.00
15.76865	105.00
15.71258	109.00
15.65691	90.00
15.60163	108.00
15.54674	129.00
15.49223	100.00
15.43811	113.00
15.38436	120.00
15.33099	115.00
15.27798	112.00
15.22535	108.00
15.17307	100.00
15.12115	110.00
15.06959	118.00
15.01838	103.00
14.96751	106.00
14.91699	111.00
14.86681	98.00
14.81697	132.00
14.76746	95.00
14.71828	107.00
14.66942	110.00
14.62089	125.00
14.57268	123.00
14.52479	104.00
14.47721	110.00
14.42995	101.00
14.38299	105.00
14.33634	92.00
14.28999	101.00
14.24393	105.00
14.19818	98.00
14.15272	95.00
14.10754	117.00
14.06266	117.00
14.01806	95.00
13.97375	99.00
13.92971	108.00
13.88595	100.00
13.84247	117.00
13.79925	125.00
13.75631	106.00
13.71363	104.00
13.67122	102.00
13.62907	105.00
13.58718	115.00
13.54554	120.00
13.50417	126.00
13.46304	111.00
13.42216	87.00
13.38153	100.00
13.34115	108.00
13.30101	94.00
13.26112	109.00
13.22146	112.00
13.18203	99.00
13.14285	98.00
13.10389	123.00
13.06517	143.00
13.02667	104.00
12.98840	114.00
12.95036	96.00
12.91254	113.00
12.87494	112.00
12.83755	95.00
12.80039	89.00
12.76344	111.00
12.72670	113.00
12.69017	114.00
12.65386	127.00
12.61775	113.00
12.58184	101.00
12.54614	99.00
12.51065	99.00
12.47535	104.00
12.44026	116.00
12.40536	107.00
12.37065	102.00
12.33614	100.00
12.30182	113.00
12.26770	105.00
12.23376	100.00
12.20001	99.00
12.16644	102.00
12.13306	89.00
12.09987	110.00
12.06685	101.00
12.03402	100.00
12.00136	107.00
11.96888	133.00
11.93658	134.00
11.90445	90.00
11.87249	92.00
11.84071	119.00
11.80909	96.00
11.77765	109.00
11.74637	105.00
11.71526	129.00
11.68431	121.00
11.65352	109.00
11.62290	123.00
11.59244	114.00
11.56214	117.00
11.53199	96.00
11.50201	122.00
11.47218	113.00
11.44250	101.00
11.41298	109.00
11.38361	120.00
11.35439	96.00
11.32532	99.00
11.29640	104.00
11.26763	106.00
11.23900	126.00
11.21052	99.00
11.18219	113.00
11.15399	116.00
11.12594	100.00
11.09803	108.00
11.07026	117.00
11.04263	109.00
11.01514	104.00
10.98778	104.00
10.96056	96.00
10.93348	113.00
10.90652	110.00
10.87971	117.00
10.85302	129.00
10.82646	133.00
10.80004	117.00
10.77374	100.00
10.74757	88.00
10.72153	127.00
10.69562	122.00
10.66983	122.00
10.64416	123.00
10.61862	109.00
10.59320	106.00
10.56790	113.00
10.54272	120.00
10.51767	118.00
10.49273	111.00
10.46791	91.00
10.44321	128.00
10.41862	106.00
10.39415	131.00
10.36980	111.00
10.34556	99.00
10.32143	121.00
10.29742	130.00
10.27351	100.00
10.24972	111.00
10.22604	113.00
10.20247	106.00
10.17901	115.00
10.15565	104.00
10.13240	114.00
10.10926	102.00
10.08623	126.00
10.06330	106.00
10.04047	98.00
10.01775	105.00
9.99513	122.00
9.97261	120.00
9.95019	123.00
9.92788	112.00
9.90566	138.00
9.88355	127.00
9.86153	131.00
9.83961	117.00
9.81779	120.00
9.79607	121.00
9.77444	109.00
9.75291	149.00
9.73147	100.00
9.71013	139.00
9.68888	127.00
9.66772	125.00
9.64666	116.00
9.62569	123.00
9.60481	117.00
9.58402	103.00
9.56332	120.00
9.54271	120.00
9.52218	107.00
9.50175	89.00
9.48141	117.00
9.46115	107.00
9.44098	113.00
9.42089	127.00
9.40089	123.00
9.38098	116.00
9.36115	114.00
9.34140	131.00
9.32174	138.00
9.30216	130.00
9.28266	108.00
9.26325	120.00
9.24391	118.00
9.22466	92.00
9.20548	115.00
9.18639	123.00
9.16738	137.00
9.14844	126.00
9.12958	119.00
9.11081	119.00
9.09210	116.00
9.07348	114.00
9.05493	127.00
9.03646	100.00
9.01806	140.00
8.99974	101.00
8.98149	118.00
8.96332	139.00
8.94522	118.00
8.92719	119.00
8.90924	126.00
8.89136	122.00
8.87355	119.00
8.85581	111.00
8.83814	134.00
8.82055	123.00
8.80302	109.00
8.78557	131.00
8.76818	131.00
8.75086	125.00
8.73361	134.00
8.71643	120.00
8.69932	121.00
8.68227	128.00
8.66529	134.00
8.64838	119.00
8.63153	131.00
8.61475	137.00
8.59804	122.00
8.58139	124.00
8.56480	123.00
8.54828	125.00
8.53182	118.00
8.51543	128.00
8.49910	128.00
8.48283	117.00
8.46662	115.00
8.45048	114.00
8.43440	123.00
8.41838	131.00
8.40242	125.00
8.38652	117.00
8.37068	134.00
8.35490	123.00
8.33918	147.00
8.32352	127.00
8.30792	130.00
8.29238	134.00
8.27689	149.00
8.26147	120.00
8.24610	138.00
8.23079	136.00
8.21553	100.00
8.20034	132.00
8.18520	136.00
8.17011	127.00
8.15508	116.00
8.14011	126.00
8.12519	124.00
8.11033	122.00
8.09552	127.00
8.08076	118.00
8.06606	119.00
8.05141	102.00
8.03682	124.00
8.02228	139.00
8.00779	128.00
7.99335	134.00
7.97897	125.00
7.96464	127.00
7.95036	136.00
7.93613	141.00
7.92195	137.00
7.90783	130.00
7.89375	127.00
7.87972	129.00
7.86575	141.00
7.85182	122.00
7.83795	156.00
7.82412	130.00
7.81034	119.00
7.79661	129.00
7.78293	122.00
7.76929	122.00
7.75571	111.00
7.74217	130.00
7.72868	128.00
7.71524	143.00
7.70184	143.00
7.68849	134.00
7.67519	132.00
7.66193	153.00
7.64872	136.00
7.63556	117.00
7.62244	123.00
7.60936	134.00
7.59633	142.00
7.58335	148.00
7.57041	142.00
7.55751	138.00
7.54466	124.00
7.53185	136.00
7.51909	136.00
7.50636	131.00
7.49369	143.00
7.48105	145.00
7.46846	131.00
7.45591	114.00
7.44340	163.00
7.43094	138.00
7.41852	135.00
7.40613	148.00
7.39379	143.00
7.38150	134.00
7.36924	144.00
7.35702	152.00
7.34484	154.00
7.33271	160.00
7.32061	148.00
7.30856	129.00
7.29654	155.00
7.28457	153.00
7.27263	142.00
7.26073	138.00
7.24888	145.00
7.23706	154.00
7.22528	155.00
7.21353	144.00
7.20183	155.00
7.19017	157.00
7.17854	131.00
7.16695	148.00
7.15540	144.00
7.14388	133.00
7.13240	170.00
7.12096	137.00
7.10956	167.00
7.09819	139.00
7.08686	145.00
7.07557	149.00
7.06431	151.00
7.05309	146.00
7.04190	173.00
7.03075	162.00
7.01964	127.00
7.00856	151.00
6.99751	147.00
6.98650	173.00
6.97553	159.00
6.96459	147.00
6.95368	152.00
6.94281	164.00
6.93197	166.00
6.92117	155.00
6.91040	159.00
6.89967	150.00
6.88896	156.00
6.87829	139.00
6.86766	175.00
6.85706	169.00
6.84649	150.00
6.83595	157.00
6.82545	153.00
6.81497	165.00
6.80453	179.00
6.79413	167.00
6.78375	174.00
6.77341	150.00
6.76309	149.00
6.75281	148.00
6.74257	158.00
6.73235	175.00
6.72216	165.00
6.71201	157.00
6.70188	161.00
6.69179	174.00
6.68172	163.00
6.67169	164.00
6.66169	152.00
6.65171	146.00
6.64177	161.00
6.63186	166.00
6.62198	169.00
6.61212	162.00
6.60230	163.00
6.59250	178.00
6.58274	189.00
6.57300	156.00
6.56330	152.00
6.55362	169.00
6.54397	155.00
6.53435	186.00
6.52475	181.00
6.51519	147.00
6.50565	169.00
6.49614	171.00
6.48666	158.00
6.47721	161.00
6.46779	185.00
6.45839	176.00
6.44902	168.00
6.43968	170.00
6.43036	171.00
6.42108	168.00
6.41181	171.00
6.40258	169.00
6.39337	167.00
6.38419	162.00
6.37504	181.00
6.36591	176.00
6.35681	165.00
6.34773	169.00
6.33868	177.00
6.32966	177.00
6.32066	186.00
6.31169	195.00
6.30275	174.00
6.29382	158.00
6.28493	182.00
6.27606	181.00
6.26722	173.00
6.25840	185.00
6.24960	187.00
6.24083	191.00
6.23209	193.00
6.22337	193.00
6.21467	202.00
6.20600	203.00
6.19735	173.00
6.18873	199.00
6.18013	178.00
6.17156	168.00
6.16301	190.00
6.15448	193.00
6.14598	217.00
6.13750	208.00
6.12904	169.00
6.12061	186.00
6.11220	191.00
6.10381	199.00
6.09545	171.00
6.08711	179.00
6.07880	199.00
6.07050	209.00
6.06223	166.00
6.05398	176.00
6.04576	202.00
6.03756	174.00
6.02937	175.00
6.02122	171.00
6.01308	192.00
6.00497	198.00
5.99687	205.00
5.98880	196.00
5.98076	192.00
5.97273	211.00
5.96473	201.00
5.95674	197.00
5.94878	189.00
5.94084	170.00
5.93292	198.00
5.92503	179.00
5.91715	198.00
5.90929	206.00
5.90146	216.00
5.89365	222.00
5.88585	212.00
5.87808	205.00
5.87033	205.00
5.86260	199.00
5.85489	213.00
5.84720	212.00
5.83953	225.00
5.83188	206.00
5.82426	197.00
5.81665	195.00
5.80906	212.00
5.80149	226.00
5.79394	207.00
5.78641	222.00
5.77890	203.00
5.77141	202.00
5.76395	219.00
5.75649	212.00
5.74906	241.00
5.74165	212.00
5.73426	224.00
5.72689	203.00
5.71953	229.00
5.71220	235.00
5.70488	198.00
5.69758	205.00
5.69031	240.00
5.68305	239.00
5.67580	200.00
5.66858	218.00
5.66138	228.00
5.65419	223.00
5.64703	245.00
5.63988	244.00
5.63275	193.00
5.62563	240.00
5.61854	228.00
5.61146	234.00
5.60441	222.00
5.59737	251.00
5.59034	208.00
5.58334	238.00
5.57635	231.00
5.56938	259.00
5.56243	225.00
5.55550	245.00
5.54858	244.00
5.54168	233.00
5.53480	215.00
5.52793	246.00
5.52109	251.00
5.51426	238.00
5.50744	231.00
5.50065	240.00
5.49387	217.00
5.48710	211.00
5.48036	240.00
5.47363	246.00
5.46692	246.00
5.46022	261.00
5.45354	247.00
5.44688	238.00
5.44023	250.00
5.43360	248.00
5.42699	249.00
5.42039	231.00
5.41381	225.00
5.40724	275.00
5.40069	265.00
5.39416	249.00
5.38764	235.00
5.38114	274.00
5.37466	263.00
5.36819	253.00
5.36173	237.00
5.35529	253.00
5.34887	249.00
5.34246	279.00
5.33607	269.00
5.32970	252.00
5.32334	270.00
5.31699	263.00
5.31066	265.00
5.30434	240.00
5.29804	253.00
5.29176	246.00
5.28549	270.00
5.27923	268.00
5.27300	292.00
5.26677	278.00
5.26056	268.00
5.25436	233.00
5.24818	256.00
5.24202	289.00
5.23587	269.00
5.22973	270.00
5.22361	318.00
5.21750	294.00
5.21141	259.00
5.20533	276.00
5.19926	261.00
5.19321	302.00
5.18718	291.00
5.18116	270.00
5.17515	264.00
5.16916	276.00
5.16318	264.00
5.15721	282.00
5.15126	286.00
5.14532	275.00
5.13940	284.00
5.13349	293.00
5.12759	287.00
5.12171	325.00
5.11584	284.00
5.10998	310.00
5.10414	306.00
5.09831	286.00
5.09250	280.00
5.08669	318.00
5.08091	279.00
5.07513	315.00
5.06937	321.00
5.06362	339.00
5.05789	322.00
5.05216	290.00
5.04645	307.00
5.04076	293.00
5.03507	295.00
5.02940	297.00
5.02375	300.00
5.01810	321.00
5.01247	324.00
5.00685	299.00
5.00125	350.00
4.99565	332.00
4.99007	329.00
4.98450	351.00
4.97895	309.00
4.97341	320.00
4.96788	309.00
4.96236	316.00
4.95685	298.00
4.95136	344.00
4.94588	322.00
4.94041	357.00
4.93495	309.00
4.92951	318.00
4.92408	319.00
4.91866	343.00
4.91325	362.00
4.90785	326.00
4.90247	348.00
4.89710	330.00
4.89174	333.00
4.88639	351.00
4.88105	326.00
4.87573	340.00
4.87041	339.00
4.86511	333.00
4.85982	340.00
4.85454	311.00
4.84928	341.00
4.84402	349.00
4.83878	366.00
4.83355	366.00
4.82833	359.00
4.82312	363.00
4.81792	355.00
4.81274	343.00
4.80756	378.00
4.80240	343.00
4.79725	353.00
4.79210	366.00
4.78697	370.00
4.78186	348.00
4.77675	382.00
4.77165	365.00
4.76656	358.00
4.76149	365.00
4.75643	348.00
4.75137	353.00
4.74633	367.00
4.74130	375.00
4.73628	358.00
4.73127	377.00
4.72627	353.00
4.72128	382.00
4.71631	351.00
4.71134	402.00
4.70638	384.00
4.70144	364.00
4.69650	410.00
4.69158	364.00
4.68666	378.00
4.68176	368.00
4.67686	348.00
4.67198	360.00
4.66711	403.00
4.66225	393.00
4.65739	410.00
4.65255	384.00
4.64772	373.00
4.64290	376.00
4.63809	384.00
4.63329	376.00
4.62849	351.00
4.62371	386.00
4.61894	424.00
4.61418	364.00
4.60943	402.00
4.60469	410.00
4.59996	452.00
4.59523	419.00
4.59052	413.00
4.58582	400.00
4.58113	394.00
4.57645	421.00
4.57177	398.00
4.56711	389.00
4.56246	415.00
4.55781	413.00
4.55318	412.00
4.54855	390.00
4.54394	420.00
4.53933	393.00
4.53474	406.00
4.53015	425.00
4.52557	395.00
4.52100	419.00
4.51644	429.00
4.51189	385.00
4.50735	414.00
4.50282	428.00
4.49830	443.00
4.49379	444.00
4.48929	410.00
4.48479	436.00
4.48031	446.00
4.47583	463.00
4.47136	431.00
4.46691	412.00
4.46246	453.00
4.45802	419.00
4.45359	457.00
4.44916	474.00
4.44475	447.00
4.44035	427.00
4.43595	420.00
4.43157	446.00
4.42719	446.00
4.42282	461.00
4.41846	431.00
4.41411	458.00
4.40977	463.00
4.40543	461.00
4.40111	452.00
4.39679	457.00
4.39248	456.00
4.38818	412.00
4.38389	475.00
4.37961	458.00
4.37533	437.00
4.37107	472.00
4.36681	461.00
4.36256	424.00
4.35832	496.00
4.35409	471.00
4.34987	480.00
4.34565	448.00
4.34144	480.00
4.33725	437.00
4.33306	463.00
4.32887	470.00
4.32470	462.00
4.32053	464.00
4.31638	443.00
4.31223	483.00
4.30808	472.00
4.30395	458.00
4.29983	485.00
4.29571	464.00
4.29160	455.00
4.28750	447.00
4.28340	458.00
4.27932	475.00
4.27524	462.00
4.27117	462.00
4.26711	510.00
4.26306	505.00
4.25901	495.00
4.25497	520.00
4.25094	506.00
4.24692	444.00
4.24290	450.00
4.23890	441.00
4.23490	501.00
4.23091	520.00
4.22692	509.00
4.22294	449.00
4.21897	490.00
4.21501	444.00
4.21106	514.00
4.20711	466.00
4.20317	477.00
4.19924	535.00
4.19532	476.00
4.19140	489.00
4.18749	481.00
4.18359	502.00
4.17970	462.00
4.17581	461.00
4.17193	510.00
4.16806	461.00
4.16419	496.00
4.16034	456.00
4.15649	487.00
4.15264	482.00
4.14881	505.00
4.14498	518.00
4.14116	513.00
4.13734	505.00
4.13354	475.00
4.12974	466.00
4.12594	490.00
4.12216	525.00
4.11838	518.00
4.11461	495.00
4.11084	522.00
4.10708	528.00
4.10333	492.00
4.09959	511.00
4.09585	539.00
4.09212	462.00
4.08840	512.00
4.08469	498.00
4.08098	511.00
4.07727	481.00
4.07358	546.00
4.06989	468.00
4.06621	485.00
4.06253	501.00
4.05886	499.00
4.05520	545.00
4.05155	465.00
4.04790	569.00
4.04426	495.00
4.04062	518.00
4.03700	535.00
4.03337	529.00
4.02976	533.00
4.02615	480.00
4.02255	514.00
4.01895	523.00
4.01537	515.00
4.01178	507.00
4.00821	498.00
4.00464	506.00
4.00108	542.00
3.99752	519.00
3.99397	509.00
3.99043	513.00
3.98689	515.00
3.98336	553.00
3.97984	516.00
3.97632	542.00
3.97281	527.00
3.96930	508.00
3.96580	520.00
3.96231	489.00
3.95882	498.00
3.95534	498.00
3.95187	551.00
3.94840	525.00
3.94494	566.00
3.94149	515.00
3.93804	509.00
3.93459	493.00
3.93116	538.00
3.92773	540.00
3.92430	515.00
3.92088	469.00
3.91747	516.00
3.91406	517.00
3.91067	531.00
3.90727	522.00
3.90388	518.00
3.90050	532.00
3.89712	534.00
3.89375	500.00
3.89039	507.00
3.88703	487.00
3.88368	483.00
3.88033	520.00
3.87699	508.00
3.87366	535.00
3.87033	554.00
3.86700	525.00
3.86369	534.00
3.86037	508.00
3.85707	504.00
3.85377	510.00
3.85047	554.00
3.84719	532.00
3.84390	575.00
3.84063	516.00
3.83735	523.00
3.83409	516.00
3.83083	535.00
3.82757	528.00
3.82433	551.00
3.82108	540.00
3.81785	511.00
3.81461	511.00
3.81139	544.00
3.80817	533.00
3.80495	545.00
3.80174	560.00
3.79854	532.00
3.79534	573.00
3.79215	566.00
3.78896	546.00
3.78578	541.00
3.78260	552.00
3.77943	520.00
3.77626	509.00
3.77310	536.00
3.76995	538.00
3.76680	486.00
3.76365	532.00
3.76051	517.00
3.75738	515.00
3.75425	533.00
3.75113	574.00
3.74801	543.00
3.74490	553.00
3.74179	530.00
3.73869	498.00
3.73559	526.00
3.73250	567.00
3.72942	532.00
3.72634	514.00
3.72326	555.00
3.72019	552.00
3.71712	523.00
3.71406	538.00
3.71101	506.00
3.70796	561.00
3.70492	545.00
3.70188	560.00
3.69884	531.00
3.69581	544.00
3.69279	587.00
3.68977	512.00
3.68675	571.00
3.68374	535.00
3.68074	521.00
3.67774	527.00
3.67475	536.00
3.67176	534.00
3.66877	527.00
3.66579	514.00
3.66282	563.00
3.65985	518.00
3.65689	573.00
3.65393	539.00
3.65097	536.00
3.64802	513.00
3.64508	488.00
3.64214	579.00
3.63920	517.00
3.63627	515.00
3.63335	556.00
3.63042	517.00
3.62751	538.00
3.62460	533.00
3.62169	533.00
3.61879	496.00
3.61589	511.00
3.61300	552.00
3.61011	515.00
3.60723	515.00
3.60435	557.00
3.60148	503.00
3.59861	534.00
3.59575	541.00
3.59289	551.00
3.59003	528.00
3.58718	525.00
3.58434	494.00
3.58150	543.00
3.57866	548.00
3.57583	524.00
3.57300	504.00
3.57018	538.00
3.56736	514.00
3.56455	514.00
3.56174	539.00
3.55894	516.00
3.55614	487.00
3.55334	516.00
3.55055	555.00
3.54777	520.00
3.54498	567.00
3.54221	532.00
3.53944	505.00
3.53667	544.00
3.53390	523.00
3.53114	529.00
3.52839	485.00
3.52564	511.00
3.52289	499.00
3.52015	533.00
3.51741	541.00
3.51468	538.00
3.51195	511.00
3.50923	480.00
3.50651	486.00
3.50379	500.00
3.50108	554.00
3.49837	512.00
3.49567	509.00
3.49297	524.00
3.49028	529.00
3.48759	532.00
3.48490	473.00
3.48222	526.00
3.47954	540.00
3.47687	510.00
3.47420	508.00
3.47154	534.00
3.46888	507.00
3.46622	484.00
3.46357	468.00
3.46092	552.00
3.45828	523.00
3.45564	502.00
3.45300	487.00
3.45037	483.00
3.44774	523.00
3.44512	563.00
3.44250	536.00
3.43988	501.00
3.43727	506.00
3.43467	521.00
3.43206	511.00
3.42946	530.00
3.42687	493.00
3.42428	518.00
3.42169	535.00
3.41911	507.00
3.41653	538.00
3.41396	510.00
3.41139	511.00
3.40882	513.00
3.40626	484.00
3.40370	554.00
3.40114	522.00
3.39859	514.00
3.39604	475.00
3.39350	518.00
3.39096	492.00
3.38843	521.00
3.38590	514.00
3.38337	599.00
3.38084	532.00
3.37832	475.00
3.37581	510.00
3.37330	512.00
3.37079	546.00
3.36828	499.00
3.36578	491.00
3.36329	512.00
3.36079	535.00
3.35830	491.00
3.35582	498.00
3.35334	427.00
3.35086	475.00
3.34839	564.00
3.34591	501.00
3.34345	518.00
3.34099	475.00
3.33853	497.00
3.33607	526.00
3.33362	490.00
3.33117	495.00
3.32873	538.00
3.32629	487.00
3.32385	477.00
3.32142	495.00
3.31899	508.00
3.31656	485.00
3.31414	477.00
3.31172	514.00
3.30930	490.00
3.30689	501.00
3.30449	468.00
3.30208	551.00
3.29968	507.00
3.29728	491.00
3.29489	508.00
3.29250	520.00
3.29011	513.00
3.28773	469.00
3.28535	500.00
3.28298	505.00
3.28060	461.00
3.27824	483.00
3.27587	521.00
3.27351	494.00
3.27115	480.00
3.26880	477.00
3.26645	486.00
3.26410	524.00
3.26175	501.00
3.25941	523.00
3.25708	467.00
3.25474	499.00
3.25241	508.00
3.25008	479.00
3.24776	463.00
3.24544	487.00
3.24312	478.00
3.24081	471.00
3.23850	508.00
3.23620	464.00
3.23389	446.00
3.23159	474.00
3.22930	478.00
3.22700	487.00
3.22471	490.00
3.22243	453.00
3.22014	500.00
3.21786	484.00
3.21559	476.00
3.21332	465.00
3.21105	473.00
3.20878	435.00
3.20652	458.00
3.20426	489.00
3.20200	501.00
3.19975	496.00
3.19750	465.00
3.19525	505.00
3.19301	456.00
3.19077	463.00
3.18853	495.00
3.18630	474.00
3.18407	480.00
3.18184	467.00
3.17961	458.00
3.17739	497.00
3.17518	476.00
3.17296	437.00
3.17075	514.00
3.16854	487.00
3.16634	512.00
3.16414	501.00
3.16194	464.00
3.15974	502.00
3.15755	490.00
3.15536	489.00
3.15317	475.00
3.15099	504.00
3.14881	465.00
3.14663	429.00
3.14446	501.00
3.14229	504.00
3.14012	475.00
3.13796	486.00
3.13580	465.00
3.13364	492.00
3.13148	475.00
3.12933	512.00
3.12718	456.00
3.12504	459.00
3.12289	478.00
3.12075	459.00
3.11862	466.00
3.11648	463.00
3.11435	449.00
3.11222	438.00
3.11010	447.00
3.10798	486.00
3.10586	456.00
3.10374	442.00
3.10163	496.00
3.09952	489.00
3.09741	465.00
3.09531	469.00
3.09321	474.00
3.09111	491.00
3.08901	506.00
3.08692	469.00
3.08483	477.00
3.08275	474.00
3.08066	479.00
3.07858	445.00
3.07650	471.00
3.07443	452.00
3.07236	438.00
3.07029	483.00
3.06822	477.00
3.06616	410.00
3.06410	520.00
3.06204	471.00
3.05999	430.00
3.05793	445.00
3.05589	460.00
3.05384	452.00
3.05180	449.00
3.04976	472.00
3.04772	447.00
3.04568	457.00
3.04365	466.00
3.04162	437.00
3.03960	484.00
3.03757	465.00
3.03555	466.00
3.03353	411.00
3.03152	457.00
3.02951	437.00
3.02750	456.00
3.02549	497.00
3.02348	455.00
3.02148	440.00
3.01948	453.00
3.01749	442.00
3.01549	418.00
3.01350	459.00
3.01152	455.00
3.00953	435.00
3.00755	473.00
3.00557	421.00
3.00359	438.00
